File: Data/aquifer_well/well_test_202511/Raw Data/COMPASS_TEMPEST_WellTest_AQ600_Data_20251110.csv
Date Time,RDO Concentration (mg/L) (846271),RDO Saturation (%Sat) (846271),Oxygen Partial Pressure (Torr) (846271),Actual Conductivity (µS/cm) (682714),Specific Conductivity (µS/cm) (682714),Salinity (PSU) (682714),Resistivity (Ω⋅cm) (682714),Density (g/cm³) (682714),Total Dissolved Solids (ppt) (682714),Temperature (°C) (1150434),External Voltage (V) (1150434),Battery Capacity (%) (1150434),Barometric Pressure (mm Hg) (1150434),Pressure (psi) (1148753),Depth (cm) (1148753)
11/10/2025 12:10,11.7448,109.963,152.248,0,0,1.16E-10,10000000,0.99949,0,12.0824,0.018,69,755.0671,-0.00335598,-8.942737
11/10/2025 12:12,11.5009,109.274,151.148,0,0,0,10000000,0.999397,0,12.71683,0.009,69,754.4296,-0.007616043,17.5765
11/10/2025 12:14,9.997154,101.549,140.07,194.8591,236.526,0.112876,5131.913,0.9990684,0.153742,15.7581,0.009,69,754.7446,-0.009532929,18.4784
11/10/2025 12:16,9.86338,100.121,138.13,194.675,236.416,0.112821,5136.76,0.999072,0.15367,15.7346,0,69,754.8871,-0.01621151,18.0077
11/10/2025 12:18,9.859023,100.083,138.023,194.727,236.603,0.11291,5135.39,0.9990752,0.153792,15.718,0,69,754.5796,-0.009924889,18.44775
11/10/2025 12:20,9.850182,99.9456,137.87,194.903,236.895,0.113051,5130.77,0.9990777,0.153982,15.7075,0,69,754.7671,-0.01565075,18.0479
11/10/2025 12:22,6.607983,67.5477,93.14535,219.3418,264.538,0.126567,4559.09,0.999034,0.17195,16.0551,0,69,754.8046,0.119672,27.2363
11/10/2025 12:24,4.94502,50.6961,69.88116,227.401,273.47,0.130945,4397.519,0.9990169,0.177756,16.18,0,69,754.6321,0.284197,38.20188
11/10/2025 12:26,4.205743,43.15734,59.49544,227.8462,273.6798,0.131053,4388.93,0.9990084,0.177892,16.2319,0,69,754.7521,0.533289,56.61939
11/10/2025 12:28,3.60327,37.0556,51.076,230.774,276.555,0.1324689,4333.235,0.9989927,0.179761,16.33309,0,69,754.73,0.737705,71.05774
11/10/2025 12:30,3.24272,33.39266,46.02719,232.911,278.686,0.133518,4293.49,0.998982,0.181146,16.4003,0,69,754.79,0.940722,85.29649
11/10/2025 12:32,2.72051,28.0717,38.68516,234.745,280.295,0.134315,4259.95,0.9989675,0.182192,16.4917,0,69,754.7221,1.14566,99.71818
11/10/2025 12:34,2.42422,25.03147,34.4991,235.547,281,0.134663,4245.43,0.9989611,0.1826503,16.5312,0,69,754.8346,1.3538,114.362
11/10/2025 12:36,2.254629,23.29725,32.09902,235.982,281.384,0.134853,4237.612,0.998958,0.1829,16.5522,0,69,754.625,1.552578,128.241
11/10/2025 12:38,2.09751,21.6953,29.88136,236.7289,282.067,0.135191,4224.241,0.9989525,0.183344,16.5845,0,69,754.3921,1.76425,143.2639
11/10/2025 12:40,1.99835,20.6712,28.48451,237.148,282.3853,0.135349,4216.784,0.998948,0.18355,16.6126,0,69,754.775,1.964323,157.3407
11/10/2025 12:42,1.85708,19.21865,26.4832,237.507,282.6623,0.135487,4210.41,0.998944,0.1837305,16.6361,0,69,754.8046,2.16971,171.784
11/10/2025 12:44,1.7557,18.1739,25.047,237.805,282.8934,0.135602,4205.13,0.9989408,0.183881,16.6553,0,69,754.9246,2.364297,185.48
11/10/2025 12:46,1.65161,17.1097,23.5715,238.1624,283.188,0.1357478,4198.82,0.9989375,0.184072,16.6756,0,69,754.6621,2.576,200.38
11/10/2025 12:48,1.5679,16.2457,22.3847,240.252,285.559,0.136911,4162.29,0.9989354,0.185614,16.6932,0,69,754.797,2.77526,214.423
11/10/2025 12:50,1.50037,15.5484,21.4262,238.532,283.428,0.135868,4192.309,0.998932,0.184228,16.7066,0,69,754.8871,2.97357,228.37
11/10/2025 12:52,1.42411,14.7663,20.34347,238.76,283.599,0.135953,4188.303,0.9989297,0.1843392,16.7222,0,69,754.7221,3.18146,242.898
11/10/2025 12:54,1.36552,14.1606,19.5103,238.8743,283.668,0.135988,4186.3,0.9989279,0.1843842,16.7325,0,69,754.7821,3.39151,257.839
11/10/2025 12:56,1.31526,13.643,18.7966,238.9951,283.738,0.136023,4184.186,0.9989261,0.18443,16.7439,0,69,754.7671,3.59212,271.959
11/10/2025 12:58,1.19761,12.4254,17.1216,239.236,283.9023,0.136106,4179.97,0.9989228,0.1845365,16.76286,0,69,754.895,3.79137,285.921
11/10/2025 13:00,1.2222,12.6835,17.4748,239.263,283.9021,0.136106,4179.51,0.998922,0.184536,16.7678,0,69,754.797,3.99843,300.552
11/10/2025 13:02,1.03527,10.74912,14.8084,239.618,284.184,0.136246,4173.31,0.9989185,0.184719,16.7895,0,69,754.7521,4.19283,314.1356
11/10/2025 13:04,0.991685,10.29822,14.1879,239.853,284.3969,0.136351,4169.22,0.9989167,0.184858,16.79967,0,69,754.797,4.31333,321.851
11/10/2025 13:06,0.951553,9.88472,13.6144,239.787,284.3041,0.136306,4170.37,0.998916,0.184798,16.80191,0,69,754.5871,4.532895,337.3493
11/10/2025 13:08,0.92616,9.615612,13.2521,239.923,284.44,0.136373,4168.01,0.998916,0.1848859,16.8059,0,69,755.06,4.824135,358.1307
11/10/2025 13:10,0.9180235,9.558581,13.1369,239.971,284.467,0.136387,4167.163,0.998915,0.184904,16.8105,0,69,753.0044,5.395115,398.5765
11/10/2025 13:12,1.034159,10.808,14.7998,239.615,284.022,0.136169,4173.354,0.998914,0.184614,16.8142,0,69,750.312,5.35144,395.798
11/10/2025 13:14,1.032299,10.7798,14.7732,239.568,283.966,0.136141,4174.182,0.998914,0.184578,16.8142,0,69,750.904,5.368224,396.9811
11/10/2025 13:16,1.03032,10.751,14.7451,239.454,283.827,0.136073,4176.172,0.998914,0.184488,16.8147,0,69,751.474,5.332198,394.447
11/10/2025 13:18,1.03328,10.7775,14.7875,239.473,283.846,0.136083,4175.84,0.9989138,0.1845,16.8152,0,69,751.782,5.320484,393.624
11/10/2025 13:20,1.0336,10.7921,14.7924,239.388,283.74,0.136031,4177.325,0.9989137,0.184431,16.816,0,69,751.0243,5.156395,382.072
11/10/2025 13:22,1.03628,10.8173,14.8302,239.315,283.665,0.1359937,4178.59,0.9989139,0.184382,16.8144,0,69,751.189,4.97349,369.199
11/10/2025 13:24,0.9422341,9.840547,13.4893,239.7623,284.0738,0.136196,4170.8,0.9989109,0.184648,16.8332,0,69,751.1068,5.13748,380.56
11/10/2025 13:26,1.01552,10.58935,14.543,239.637,283.827,0.1360761,4172.97,0.9989081,0.184488,16.8486,0,69,752.5019,5.058197,375.16
11/10/2025 13:28,1.01961,10.63001,14.6005,239.478,283.6588,0.135993,4175.746,0.9989086,0.184378,16.8454,0,69,752.5844,4.82611,358.8274
11/10/2025 13:30,1.00906,10.5298,14.4477,239.409,283.6177,0.135973,4176.953,0.9989097,0.1843515,16.839,0,69,751.8043,4.748043,353.333
11/10/2025 13:32,1.00808,10.5247,14.4336,239.379,283.583,0.135956,4177.478,0.9989098,0.184329,16.83882,0,69,751.444,4.66352,347.3858
11/10/2025 13:34,1.00566,10.4794,14.3989,239.278,283.4653,0.135898,4179.24,0.99891,0.184252,16.8385,0,69,752.8469,4.54703,339.184
11/10/2025 13:36,0.9591258,9.990062,13.7324,239.3979,283.613,0.13597,4177.146,0.99891,0.184349,16.8377,0,69,753.1619,4.606409,343.3638
11/10/2025 13:38,1.00489,10.4855,14.3927,239.532,283.6568,0.135993,4174.81,0.998907,0.184377,16.8556,0,69,752.1118,4.628275,344.902
11/10/2025 13:40,0.9959842,10.4077,14.2675,239.4504,283.506,0.13592,4176.23,0.998905,0.184279,16.8641,0,69,751.174,4.63498,345.374
11/10/2025 13:42,1.00061,10.457,14.3339,239.522,283.586,0.135959,4174.97,0.998905,0.184331,16.8649,0,69,751.1143,4.61723,344.125
11/10/2025 13:44,0.892711,9.314266,12.7812,239.771,284.061,0.13619,4170.649,0.9989102,0.18464,16.8367,0,69,751.879,4.565673,340.498
11/10/2025 13:46,0.9645667,10.0572,13.8173,239.489,283.555,0.135944,4175.56,0.998905,0.184311,16.8636,0,69,752.7945,4.617939,344.177
11/10/2025 13:48,0.9857368,10.2783,14.1219,239.5385,283.582,0.135958,4174.69,0.9989045,0.184328,16.8686,0,69,752.8395,4.618515,344.2173
11/10/2025 13:50,0.996223,10.3855,14.2708,239.437,283.493,0.135914,4176.459,0.9989054,0.184271,16.8637,0,69,752.922,4.541065,338.7611
11/10/2025 13:52,0.9723792,10.1369,13.9313,239.69,283.7444,0.136038,4172.06,0.9989042,0.184434,16.8711,0,69,753.0345,4.616255,344.0586
11/10/2025 13:54,0.981015,10.2306,14.0562,239.554,283.557,0.135946,4174.43,0.9989034,0.184312,16.87532,0,69,752.8395,4.620346,344.3391
11/10/2025 13:56,0.986649,10.2921,14.141,239.58,283.492,0.135915,4173.969,0.9989008,0.1842695,16.89031,0,69,752.869,4.619278,344.272
11/10/2025 13:58,0.984061,10.2445,14.1022,239.51,283.45,0.135895,4175.183,0.9989019,0.1842426,16.8839,0,69,754.2571,4.59245,342.385
11/10/2025 14:00,0.986371,10.291,14.1328,239.425,283.4054,0.135872,4176.677,0.998903,0.1842135,16.8751,0,69,752.5094,4.626774,344.795
11/10/2025 14:02,0.9990697,10.4271,14.3148,239.484,283.475,0.135906,4175.64,0.998903,0.184258,16.87521,0,69,752.2544,0.04745388,22.4831
11/10/2025 14:04,9.569185,94.89025,130.096,0.0549451,0.06902459,0,18200000,0.999201,4.49E-05,14.3205,0,69,749.0891,0.114249,26.2932
11/10/2025 14:06,11.0592,103.055,142.3877,0.0549451,0.07352287,0,,,,,,,,,